Device_SN,R1380193
Test_Time,01/25/2024 16:14:15
Memo,R1380193; Raman Laser Off; 
Integration_Time(ms),1000.00
Case_Temperature,27.26
Sensor_Temperature,-17.92
Laser_Wavelength(nm),532.000
Laser_Power(mW),0
WL_Unit,Raman_Shift(cm^-1)
Pwr_Unit,Count
Substract_Background,Yes
Smoothing,No
Baseline_Correction,No
Average_Number,1
Peak_Search_Mode,None
Noise_Threshold,1000
Data_Count,2048
WL,Power
90.605,453.000
92.580,435.000
94.555,403.000
96.529,306.000
98.503,317.000
100.476,323.000
102.449,285.000
104.421,275.000
106.392,320.000
108.364,287.000
110.334,230.000
112.305,215.000
114.274,150.000
116.244,156.000
118.213,87.000
120.181,96.000
122.149,115.000
124.116,5.000
126.083,17.000
128.050,83.000
130.016,28.000
131.981,-18.000
133.946,-26.000
135.911,-87.000
137.875,-21.000
139.838,13.000
141.801,-28.000
143.764,-36.000
145.726,-21.000
147.688,-65.000
149.649,-53.000
151.610,-16.000
153.570,-24.000
155.530,-69.000
157.489,-63.000
159.448,-46.000
161.406,-84.000
163.364,-97.000
165.321,-86.000
167.278,-113.000
169.235,-115.000
171.191,-65.000
173.146,-98.000
175.101,-108.000
177.056,-94.000
179.010,-78.000
180.963,-82.000
182.916,-76.000
184.869,-129.000
186.821,-97.000
188.773,-135.000
190.724,-71.000
192.675,-89.000
194.625,-122.000
196.575,-82.000
198.524,-86.000
200.473,-122.000
202.421,-118.000
204.369,-69.000
206.316,-87.000
208.263,-104.000
210.210,-109.000
212.156,-120.000
214.101,-94.000
216.046,-106.000
217.991,-117.000
219.935,-89.000
221.878,-116.000
223.821,-141.000
225.764,-61.000
227.706,-94.000
229.648,-145.000
231.589,-53.000
233.530,-105.000
235.470,-118.000
237.410,-148.000
239.349,-118.000
241.288,-73.000
243.227,-70.000
245.164,-144.000
247.102,-141.000
249.039,-64.000
250.975,-130.000
252.911,-128.000
254.847,-119.000
256.782,-154.000
258.717,-69.000
260.651,-121.000
262.584,-156.000
264.518,-65.000
266.450,-64.000
268.383,-79.000
270.314,-95.000
272.246,-133.000
274.176,-118.000
276.107,-55.000
278.037,-62.000
279.966,-147.000
281.895,-162.000
283.823,-232.000
285.751,-101.000
287.679,-144.000
289.606,-125.000
291.533,-149.000
293.459,-76.000
295.384,-86.000
297.310,-61.000
299.234,-130.000
301.158,-110.000
303.082,-96.000
305.005,-136.000
306.928,-129.000
308.851,-99.000
310.773,-104.000
312.694,-96.000
314.615,-79.000
316.535,-109.000
318.455,-63.000
320.375,-116.000
322.294,-135.000
324.212,-94.000
326.131,-106.000
328.048,-94.000
329.965,-120.000
331.882,-82.000
333.798,-81.000
335.714,-120.000
337.629,-111.000
339.544,-72.000
341.459,-92.000
343.372,-91.000
345.286,-25.000
347.199,-86.000
349.111,-123.000
351.023,-51.000
352.935,-118.000
354.846,-118.000
356.757,-64.000
358.667,-102.000
360.576,-102.000
362.486,-55.000
364.394,-63.000
366.303,-109.000
368.210,-73.000
370.118,-112.000
372.025,-77.000
373.931,-127.000
375.837,-90.000
377.742,-111.000
379.647,-89.000
381.552,-133.000
383.456,-101.000
385.360,-100.000
387.263,-117.000
389.165,-75.000
391.067,-109.000
392.969,-130.000
394.870,-43.000
396.771,-98.000
398.672,-131.000
400.571,-155.000
402.471,-112.000
404.370,-99.000
406.268,-93.000
408.166,-122.000
410.064,-90.000
411.961,-112.000
413.857,-79.000
415.753,-185.000
417.649,-188.000
419.544,-148.000
421.439,-100.000
423.333,-90.000
425.227,-73.000
427.120,-79.000
429.013,-63.000
430.906,-92.000
432.798,-73.000
434.689,-90.000
436.580,-51.000
438.471,-46.000
440.361,-100.000
442.250,-82.000
444.140,-60.000
446.028,-101.000
447.916,-135.000
449.804,-96.000
451.691,-68.000
453.578,-112.000
455.465,-94.000
457.351,-58.000
459.236,-48.000
461.121,-71.000
463.005,-67.000
464.889,-120.000
466.773,-101.000
468.656,-141.000
470.539,-90.000
472.421,-134.000
474.303,-80.000
476.184,-55.000
478.065,-118.000
479.945,-83.000
481.825,-73.000
483.704,-51.000
485.583,-75.000
487.462,-107.000
489.340,-107.000
491.217,-81.000
493.094,-94.000
494.971,-114.000
496.847,-87.000
498.723,-94.000
500.598,-46.000
502.473,-103.000
504.347,-124.000
506.221,-98.000
508.095,-176.000
509.967,-121.000
511.840,-102.000
513.712,-109.000
515.584,-120.000
517.455,-80.000
519.325,-97.000
521.195,-68.000
523.065,-83.000
524.934,-57.000
526.803,-101.000
528.671,-30.000
530.539,-92.000
532.407,-122.000
534.274,-81.000
536.140,-141.000
538.006,-103.000
539.872,-75.000
541.737,-73.000
543.601,-106.000
545.466,-55.000
547.329,-87.000
549.192,-59.000
551.055,-57.000
552.918,-101.000
554.779,-111.000
556.641,-46.000
558.502,-157.000
560.362,-66.000
562.222,-98.000
564.082,-117.000
565.941,-59.000
567.800,-78.000
569.658,-120.000
571.516,-88.000
573.373,-115.000
575.230,-54.000
577.086,-72.000
578.942,-61.000
580.797,-149.000
582.652,-65.000
584.507,-84.000
586.361,-80.000
588.215,-50.000
590.068,-70.000
591.920,-97.000
593.773,-91.000
595.624,-29.000
597.476,-88.000
599.327,-112.000
601.177,-130.000
603.027,-94.000
604.876,-67.000
606.725,-52.000
608.574,-24.000
610.422,-80.000
612.270,-31.000
614.117,-66.000
615.964,-112.000
617.810,-37.000
619.656,-137.000
621.501,-118.000
623.346,-69.000
625.190,-80.000
627.034,-73.000
628.878,-130.000
630.721,-136.000
632.564,-79.000
634.406,-116.000
636.247,-118.000
638.089,-60.000
639.930,-79.000
641.770,-117.000
643.610,-92.000
645.449,-93.000
647.288,-91.000
649.127,-102.000
650.965,-94.000
652.802,-103.000
654.639,-50.000
656.476,-78.000
658.312,-108.000
660.148,-48.000
661.983,-214.000
663.818,-121.000
665.653,-89.000
667.487,-128.000
669.320,-80.000
671.153,-109.000
672.986,-153.000
674.818,-82.000
676.650,-79.000
678.481,-80.000
680.312,-78.000
682.142,-107.000
683.972,-112.000
685.801,-123.000
687.630,-104.000
689.459,-132.000
691.287,-90.000
693.114,-73.000
694.941,-126.000
696.768,-124.000
698.594,-80.000
700.420,-96.000
702.246,-82.000
704.070,-116.000
705.895,-112.000
707.719,-124.000
709.542,-115.000
711.365,-155.000
713.188,-80.000
715.010,-79.000
716.832,-116.000
718.653,-97.000
720.474,-111.000
722.294,-141.000
724.114,-95.000
725.933,-95.000
727.752,-46.000
729.571,-87.000
731.389,-74.000
733.207,-102.000
735.024,-141.000
736.841,-104.000
738.657,-97.000
740.473,-145.000
742.288,-128.000
744.103,-91.000
745.917,-87.000
747.731,-106.000
749.545,-133.000
751.358,-121.000
753.171,-86.000
754.983,-138.000
756.795,-112.000
758.606,-138.000
760.417,-141.000
762.227,-172.000
764.037,-95.000
765.847,-112.000
767.656,-105.000
769.464,-170.000
771.272,-189.000
773.080,-151.000
774.887,-195.000
776.694,-173.000
778.500,-323.000
780.306,-138.000
782.112,-127.000
783.917,-70.000
785.721,-103.000
787.525,-97.000
789.329,-77.000
791.132,-106.000
792.935,-179.000
794.737,-90.000
796.539,-165.000
798.341,-97.000
800.141,-92.000
801.942,-147.000
803.742,-87.000
805.542,-71.000
807.341,-143.000
809.139,-96.000
810.938,-61.000
812.735,-126.000
814.533,-86.000
816.330,-106.000
818.126,-117.000
819.922,-87.000
821.718,-133.000
823.513,-124.000
825.308,-69.000
827.102,-110.000
828.895,-110.000
830.689,-122.000
832.482,-127.000
834.274,-129.000
836.066,-100.000
837.858,-76.000
839.649,-173.000
841.439,-79.000
843.229,-113.000
845.019,-119.000
846.808,-128.000
848.597,-82.000
850.386,-70.000
852.174,-111.000
853.961,-78.000
855.748,-105.000
857.535,-105.000
859.321,-104.000
861.107,-125.000
862.892,-128.000
864.677,-125.000
866.461,-134.000
868.245,-144.000
870.028,-114.000
871.812,-112.000
873.594,-134.000
875.376,-152.000
877.158,-105.000
878.939,-83.000
880.720,-128.000
882.500,-133.000
884.280,-92.000
886.060,-139.000
887.839,-82.000
889.617,-93.000
891.395,-115.000
893.173,-48.000
894.950,-101.000
896.727,-128.000
898.503,-106.000
900.279,-74.000
902.055,-145.000
903.830,-58.000
905.604,-81.000
907.378,-61.000
909.152,-87.000
910.925,-65.000
912.698,-103.000
914.470,-87.000
916.242,-71.000
918.014,-61.000
919.785,-113.000
921.555,-86.000
923.326,-110.000
925.095,-113.000
926.864,-99.000
928.633,-82.000
930.402,-64.000
932.169,-111.000
933.937,-133.000
935.704,-41.000
937.470,-105.000
939.237,-124.000
941.002,-77.000
942.768,-117.000
944.532,-102.000
946.297,-102.000
948.061,-63.000
949.824,-121.000
951.587,-61.000
953.350,-128.000
955.112,-112.000
956.874,-42.000
958.635,-99.000
960.396,-43.000
962.156,-7.000
963.916,-28.000
965.675,35.000
967.434,83.000
969.193,133.000
970.951,226.000
972.709,279.000
974.466,315.000
976.223,431.000
977.979,490.000
979.735,532.000
981.491,698.000
983.246,762.000
985.001,815.000
986.755,983.000
988.508,1288.000
990.262,1511.000
992.015,1568.000
993.767,1367.000
995.519,1142.000
997.271,788.000
999.022,639.000
1000.772,444.000
1002.523,335.000
1004.272,268.000
1006.022,183.000
1007.771,81.000
1009.519,89.000
1011.267,-2.000
1013.015,12.000
1014.762,15.000
1016.508,-21.000
1018.255,-69.000
1020.000,-36.000
1021.746,-77.000
1023.491,-69.000
1025.235,-70.000
1026.979,-41.000
1028.723,-24.000
1030.466,-41.000
1032.209,-73.000
1033.951,-121.000
1035.693,-63.000
1037.434,-108.000
1039.175,-21.000
1040.916,-73.000
1042.656,-89.000
1044.396,-79.000
1046.135,-108.000
1047.874,-67.000
1049.612,-42.000
1051.350,-87.000
1053.087,-98.000
1054.824,-44.000
1056.561,-87.000
1058.297,-77.000
1060.033,-27.000
1061.768,-68.000
1063.503,-65.000
1065.237,-70.000
1066.971,-151.000
1068.705,-89.000
1070.438,-39.000
1072.171,-75.000
1073.903,-56.000
1075.635,-58.000
1077.366,-114.000
1079.097,-31.000
1080.827,-42.000
1082.557,-131.000
1084.287,-72.000
1086.016,-71.000
1087.745,-94.000
1089.473,-60.000
1091.201,-98.000
1092.928,-140.000
1094.655,-109.000
1096.382,-56.000
1098.108,-84.000
1099.834,-84.000
1101.559,-101.000
1103.284,-87.000
1105.008,-116.000
1106.732,-88.000
1108.456,-109.000
1110.179,-79.000
1111.901,-133.000
1113.623,-112.000
1115.345,-72.000
1117.066,-73.000
1118.787,-50.000
1120.508,-70.000
1122.228,-92.000
1123.947,-76.000
1125.666,-105.000
1127.385,-104.000
1129.103,-85.000
1130.821,-65.000
1132.539,-32.000
1134.256,-113.000
1135.972,-99.000
1137.688,-163.000
1139.404,-93.000
1141.119,-79.000
1142.834,-69.000
1144.548,-114.000
1146.262,-70.000
1147.976,-53.000
1149.689,-46.000
1151.401,-49.000
1153.113,-32.000
1154.825,-37.000
1156.536,-31.000
1158.247,-40.000
1159.958,-50.000
1161.668,-91.000
1163.377,-98.000
1165.086,-18.000
1166.795,-17.000
1168.503,-41.000
1170.211,14.000
1171.919,44.000
1173.626,-8.000
1175.332,-26.000
1177.038,27.000
1178.744,-47.000
1180.449,-47.000
1182.154,-40.000
1183.858,-60.000
1185.562,-54.000
1187.266,38.000
1188.969,-38.000
1190.672,-51.000
1192.374,-36.000
1194.076,-61.000
1195.777,-89.000
1197.478,-37.000
1199.178,-102.000
1200.878,-35.000
1202.578,-97.000
1204.277,-97.000
1205.976,-123.000
1207.674,-115.000
1209.372,-78.000
1211.070,-78.000
1212.767,-77.000
1214.463,-86.000
1216.160,-46.000
1217.855,-105.000
1219.551,-105.000
1221.245,-37.000
1222.940,-80.000
1224.634,-77.000
1226.328,-45.000
1228.021,-118.000
1229.713,-41.000
1231.406,-69.000
1233.098,-63.000
1234.789,-85.000
1236.480,-104.000
1238.171,-102.000
1239.861,-106.000
1241.550,-50.000
1243.240,-141.000
1244.929,-89.000
1246.617,-187.000
1248.305,-76.000
1249.993,-76.000
1251.680,-39.000
1253.366,-62.000
1255.053,-71.000
1256.739,-107.000
1258.424,-56.000
1260.109,-106.000
1261.794,-52.000
1263.478,-51.000
1265.161,-118.000
1266.845,-43.000
1268.527,-44.000
1270.210,-80.000
1271.892,-54.000
1273.573,-59.000
1275.255,-119.000
1276.935,-83.000
1278.616,-75.000
1280.295,-93.000
1281.975,-47.000
1283.654,-93.000
1285.332,-90.000
1287.010,-62.000
1288.688,-110.000
1290.365,-114.000
1292.042,-66.000
1293.719,-101.000
1295.395,-36.000
1297.070,-31.000
1298.745,-112.000
1300.420,-40.000
1302.094,-69.000
1303.768,-80.000
1305.442,-23.000
1307.115,-97.000
1308.787,-79.000
1310.459,-69.000
1312.131,-29.000
1313.802,-69.000
1315.473,-58.000
1317.144,-50.000
1318.814,-98.000
1320.483,-97.000
1322.153,-71.000
1323.821,-77.000
1325.490,-84.000
1327.157,-71.000
1328.825,-59.000
1330.492,-66.000
1332.159,-129.000
1333.825,-39.000
1335.491,-51.000
1337.156,-95.000
1338.821,-60.000
1340.485,-41.000
1342.149,-99.000
1343.813,-69.000
1345.476,-109.000
1347.139,-80.000
1348.801,-70.000
1350.463,-66.000
1352.125,-121.000
1353.786,-73.000
1355.446,-75.000
1357.107,-83.000
1358.766,-79.000
1360.426,-121.000
1362.085,-118.000
1363.743,-86.000
1365.401,-86.000
1367.059,-62.000
1368.716,-111.000
1370.373,-79.000
1372.029,-64.000
1373.685,-68.000
1375.341,-88.000
1376.996,-83.000
1378.651,-57.000
1380.305,-76.000
1381.959,-100.000
1383.612,-76.000
1385.265,-65.000
1386.918,-47.000
1388.570,-76.000
1390.222,-33.000
1391.873,-65.000
1393.524,-139.000
1395.175,-62.000
1396.825,-100.000
1398.474,-26.000
1400.123,-35.000
1401.772,-119.000
1403.421,-36.000
1405.069,-67.000
1406.716,-91.000
1408.363,-58.000
1410.010,-106.000
1411.656,-208.000
1413.302,-370.000
1414.947,-50.000
1416.592,-48.000
1418.237,-67.000
1419.881,-67.000
1421.525,-120.000
1423.168,-73.000
1424.811,-53.000
1426.453,-133.000
1428.095,-66.000
1429.737,-131.000
1431.378,-70.000
1433.019,-27.000
1434.659,-114.000
1436.299,-108.000
1437.939,-89.000
1439.578,-88.000
1441.216,-111.000
1442.855,-52.000
1444.492,-80.000
1446.130,-86.000
1447.767,-37.000
1449.403,-142.000
1451.039,-92.000
1452.675,-89.000
1454.310,-80.000
1455.945,-54.000
1457.580,-73.000
1459.214,-105.000
1460.847,-89.000
1462.481,-53.000
1464.113,-96.000
1465.746,-46.000
1467.378,-102.000
1469.009,-90.000
1470.640,-59.000
1472.271,-92.000
1473.901,-73.000
1475.531,-39.000
1477.160,-120.000
1478.789,-90.000
1480.418,-43.000
1482.046,-51.000
1483.674,-54.000
1485.301,-53.000
1486.928,-27.000
1488.554,-51.000
1490.180,-71.000
1491.806,-67.000
1493.431,-122.000
1495.056,-137.000
1496.680,-73.000
1498.304,-87.000
1499.928,-94.000
1501.551,-104.000
1503.174,-178.000
1504.796,-118.000
1506.418,-50.000
1508.039,-80.000
1509.660,-52.000
1511.281,-99.000
1512.901,-96.000
1514.521,-79.000
1516.140,-48.000
1517.759,-92.000
1519.378,-63.000
1520.996,-91.000
1522.614,-77.000
1524.231,-57.000
1525.848,-72.000
1527.464,-94.000
1529.080,-70.000
1530.696,-101.000
1532.311,-93.000
1533.926,-40.000
1535.540,-80.000
1537.154,-108.000
1538.768,-115.000
1540.381,-34.000
1541.993,-68.000
1543.606,-53.000
1545.217,-84.000
1546.829,-94.000
1548.440,13.000
1550.051,-72.000
1551.661,-71.000
1553.271,-29.000
1554.880,-141.000
1556.489,-91.000
1558.097,-51.000
1559.705,-106.000
1561.313,-22.000
1562.920,-46.000
1564.527,-79.000
1566.134,-46.000
1567.740,-84.000
1569.345,-37.000
1570.951,21.000
1572.555,-1.000
1574.160,-53.000
1575.764,-31.000
1577.367,-9.000
1578.970,-42.000
1580.573,-23.000
1582.175,23.000
1583.777,-3.000
1585.379,17.000
1586.980,43.000
1588.580,-10.000
1590.181,-5.000
1591.780,18.000
1593.380,27.000
1594.979,30.000
1596.577,-21.000
1598.175,50.000
1599.773,28.000
1601.371,-5.000
1602.967,16.000
1604.564,-49.000
1606.160,13.000
1607.756,-24.000
1609.351,-14.000
1610.946,0.000
1612.540,23.000
1614.134,-17.000
1615.728,-31.000
1617.321,-56.000
1618.914,-23.000
1620.506,-58.000
1622.098,-53.000
1623.690,-50.000
1625.281,-67.000
1626.871,-58.000
1628.462,-88.000
1630.052,-22.000
1631.641,-120.000
1633.230,-65.000
1634.819,-56.000
1636.407,-123.000
1637.995,-51.000
1639.582,-48.000
1641.169,-62.000
1642.756,-47.000
1644.342,-97.000
1645.928,-17.000
1647.513,-55.000
1649.098,-85.000
1650.683,-25.000
1652.267,-30.000
1653.850,-94.000
1655.434,-58.000
1657.017,-42.000
1658.599,-63.000
1660.181,-40.000
1661.763,-59.000
1663.344,-87.000
1664.925,-69.000
1666.505,-71.000
1668.085,-71.000
1669.665,-55.000
1671.244,-45.000
1672.823,-110.000
1674.401,-61.000
1675.979,-62.000
1677.557,-85.000
1679.134,-101.000
1680.710,-56.000
1682.287,-126.000
1683.863,-64.000
1685.438,-53.000
1687.013,-57.000
1688.588,-5.000
1690.162,-104.000
1691.736,-63.000
1693.309,-57.000
1694.882,-70.000
1696.455,-65.000
1698.027,-64.000
1699.599,-98.000
1701.170,-26.000
1702.741,-41.000
1704.312,-121.000
1705.882,7.000
1707.452,-84.000
1709.021,-72.000
1710.590,-102.000
1712.159,-86.000
1713.727,-75.000
1715.295,-52.000
1716.862,-117.000
1718.429,-80.000
1719.995,-128.000
1721.561,-99.000
1723.127,-88.000
1724.692,-71.000
1726.257,-56.000
1727.821,-59.000
1729.386,-131.000
1730.949,-85.000
1732.512,-86.000
1734.075,-165.000
1735.638,-70.000
1737.200,-30.000
1738.761,-69.000
1740.322,-24.000
1741.883,-45.000
1743.443,-16.000
1745.003,-31.000
1746.563,-51.000
1748.122,-60.000
1749.681,-67.000
1751.239,-83.000
1752.797,-65.000
1754.355,-53.000
1755.912,-84.000
1757.468,-67.000
1759.025,-67.000
1760.581,-69.000
1762.136,-69.000
1763.691,-88.000
1765.246,-63.000
1766.800,-58.000
1768.354,-79.000
1769.907,-86.000
1771.460,-72.000
1773.013,-58.000
1774.565,-96.000
1776.117,-42.000
1777.668,-107.000
1779.219,-80.000
1780.770,-37.000
1782.320,-55.000
1783.870,-143.000
1785.419,-34.000
1786.968,-105.000
1788.517,-114.000
1790.065,-69.000
1791.613,-82.000
1793.160,-85.000
1794.707,-103.000
1796.254,-223.000
1797.800,-794.000
1799.346,-56.000
1800.891,-106.000
1802.436,-50.000
1803.980,-5.000
1805.524,-104.000
1807.068,-81.000
1808.612,-79.000
1810.154,-128.000
1811.697,-91.000
1813.239,-93.000
1814.781,-110.000
1816.322,-42.000
1817.863,-69.000
1819.403,-69.000
1820.943,-43.000
1822.483,-52.000
1824.022,-99.000
1825.561,-30.000
1827.100,-82.000
1828.638,-70.000
1830.175,-116.000
1831.713,-79.000
1833.249,-33.000
1834.786,-77.000
1836.322,-57.000
1837.858,-83.000
1839.393,-111.000
1840.928,-67.000
1842.462,-78.000
1843.996,-127.000
1845.530,-54.000
1847.063,-105.000
1848.596,-67.000
1850.128,-97.000
1851.660,-82.000
1853.192,-59.000
1854.723,-73.000
1856.254,-77.000
1857.784,-66.000
1859.314,-40.000
1860.844,-55.000
1862.373,-81.000
1863.902,-46.000
1865.430,-93.000
1866.958,-171.000
1868.486,-70.000
1870.013,-102.000
1871.540,-52.000
1873.066,-51.000
1874.592,-63.000
1876.118,-61.000
1877.643,-16.000
1879.168,-64.000
1880.692,-63.000
1882.216,-59.000
1883.739,-62.000
1885.263,-52.000
1886.785,-116.000
1888.308,-103.000
1889.830,-46.000
1891.351,-67.000
1892.872,-120.000
1894.393,-63.000
1895.914,-69.000
1897.433,-76.000
1898.953,-6.000
1900.472,-44.000
1901.991,-74.000
1903.509,19.000
1905.027,-63.000
1906.545,-40.000
1908.062,-91.000
1909.579,-73.000
1911.095,-85.000
1912.611,-74.000
1914.127,-72.000
1915.642,-65.000
1917.157,-70.000
1918.671,-111.000
1920.185,-12.000
1921.698,-96.000
1923.212,-69.000
1924.724,-80.000
1926.237,-81.000
1927.749,-123.000
1929.260,-33.000
1930.771,-27.000
1932.282,-28.000
1933.793,-30.000
1935.303,-63.000
1936.812,-58.000
1938.321,-82.000
1939.830,-79.000
1941.338,-69.000
1942.846,-51.000
1944.354,-73.000
1945.861,-72.000
1947.368,-58.000
1948.874,-94.000
1950.380,-46.000
1951.886,-54.000
1953.391,-53.000
1954.896,-76.000
1956.400,-53.000
1957.904,-91.000
1959.408,-76.000
1960.911,-42.000
1962.414,-89.000
1963.916,-37.000
1965.418,-55.000
1966.920,-32.000
1968.421,-88.000
1969.922,-67.000
1971.422,-50.000
1972.922,-81.000
1974.422,-95.000
1975.921,-52.000
1977.420,-62.000
1978.918,-64.000
1980.417,-51.000
1981.914,-71.000
1983.411,-72.000
1984.908,-25.000
1986.405,-75.000
1987.901,-78.000
1989.396,-119.000
